,Emission/nm
0,427.0
1,520.0
2,528.0
3,627.0
4,560.0
5,491.0
6,490.0
7,495.0
8,518.0
9,525.0
10,516.0
11,516.0
12,485.0
13,524.0
14,526.0
15,529.0
16,530.0
17,531.0
18,532.0
19,532.0
20,533.0
21,534.0
22,535.0
23,568.0
24,500.0
25,539.0
26,542.0
27,558.0
28,559.0
29,514.0
30,573.0
31,520.0
32,528.0
33,542.0
34,554.0
35,555.0
36,556.0
37,556.0
38,558.0
39,532.0
40,558.0
41,524.0
42,530.0
43,520.0
44,513.0
45,424.0
46,411.0
47,350.0
48,383.0
49,585.0
50,595.0
51,582.0
52,545.0
53,597.0
54,578.0
55,570.0
56,569.0
57,568.0
58,570.0
59,572.0
60,576.0
61,578.0
62,589.0
63,573.0
64,570.0
65,585.0
66,587.0
67,579.0
68,568.0
69,585.0
70,649.0
71,639.0
72,585.0
73,585.0
74,577.0
75,596.0
76,586.0
77,589.0
78,573.0
79,595.0
80,570.0
81,587.0
82,593.0
83,587.0
84,589.0
85,586.0
86,581.0
87,583.0
88,585.0
89,600.0
90,578.0
91,575.0
92,576.0
93,614.0
94,597.0
95,599.0
96,580.0
97,625.0
98,575.0
99,579.0
100,585.0
101,565.0
102,596.0
103,585.0
104,586.0
105,592.0
106,573.0
107,578.0
108,608.0
109,573.0
110,603.0
111,581.0
112,614.0
113,586.0
114,618.0
115,639.0
116,628.0
117,585.0
118,595.0
119,591.0
120,591.0
121,580.0
122,581.0
123,587.0
124,573.0
125,585.0
126,586.0
127,587.0
128,573.0
129,581.0
130,573.0
131,580.0
132,580.0
133,590.0
134,580.0
135,574.0
136,592.0
137,573.0
138,593.0
139,597.0
140,582.0
141,592.0
142,588.0
143,580.0
144,573.0
145,573.0
146,591.0
147,594.0
148,568.0
149,583.0
150,598.0
151,661.0
152,572.0
153,573.0
154,582.0
155,582.0
156,583.0
157,571.0
158,621.0
159,570.0
160,573.0
161,598.0
162,580.0
163,569.0
164,607.0
165,628.0
166,664.0
167,579.0
168,579.0
169,572.0
170,579.0
171,670.0
172,604.0
173,570.0
174,572.0
175,571.0
176,578.0
177,575.0
178,583.0
179,573.0
180,573.0
181,574.0
182,597.0
183,574.0
184,588.0
185,579.0
186,570.0
187,573.0
188,579.0
189,570.0
190,569.0
191,571.0
192,602.0
193,581.0
194,571.0
195,577.0
196,571.0
197,571.0
198,578.0
199,575.0
200,570.0
201,581.0
202,571.0
203,578.0
204,582.0
205,572.0
206,576.0
207,574.0
208,587.0
209,574.0
210,591.0
211,568.0
212,589.0
213,581.0
214,581.0
215,590.0
216,577.0
217,569.0
218,571.0
219,571.0
220,577.0
221,628.0
222,567.0
223,578.0
224,579.0
225,580.0
226,579.0
227,577.0
228,571.0
229,568.0
230,565.0
231,575.0
232,570.0
233,581.0
234,595.0
235,591.0
236,570.0
237,576.0
238,588.0
239,569.0
240,587.0
241,570.0
242,583.0
243,593.0
244,571.0
245,570.0
246,605.0
247,569.0
248,579.0
249,608.0
250,576.0
251,590.0
252,639.0
253,575.0
254,576.0
255,570.0
256,581.0
257,575.0
258,572.0
259,571.0
260,573.0
261,575.0
262,582.0
263,575.0
264,578.0
265,587.0
266,598.0
267,581.0
268,574.0
269,582.0
270,580.0
271,568.0
272,579.0
273,589.0
274,577.0
275,576.0
276,575.0
277,592.0
278,601.0
279,571.0
280,682.0
281,622.0
282,571.0
283,582.0
284,572.0
285,595.0
286,572.0
287,574.0
288,615.0
289,592.0
290,592.0
291,573.0
292,578.0
293,629.0
294,585.0
295,586.0
296,634.0
297,566.0
298,627.0
299,587.0
300,656.0
301,605.0
302,573.0
303,570.0
304,569.0
305,571.0
306,619.0
307,580.0
308,594.0
309,623.0
310,596.0
311,587.0
312,571.0
313,565.0
314,581.0
315,575.0
316,571.0
317,586.0
318,571.0
319,641.0
320,540.0
321,578.0
322,578.0
323,580.0
324,588.0
325,578.0
326,576.0
327,628.0
328,626.0
329,588.0
330,591.0
331,568.0
332,581.0
333,570.0
334,570.0
335,582.0
336,593.0
337,572.0
338,574.0
339,571.0
340,570.0
341,567.0
342,584.0
343,569.0
344,581.0
345,564.0
346,570.0
347,583.0
348,571.0
349,588.0
350,426.0
351,428.0
352,427.0
353,433.0
354,427.0
355,427.0
356,429.0
357,433.0
358,431.0
359,430.0
360,423.0
361,434.0
362,433.0
363,437.0
364,445.0
365,459.0
366,464.0
367,467.0
368,378.0
369,414.0
370,430.0
371,453.0
372,533.0
373,537.0
374,473.0
375,478.0
376,485.0
377,489.0
378,371.0
379,373.0
380,381.0
381,391.0
382,378.0
383,397.0
384,406.0
385,411.0
386,423.0
387,460.0
388,388.0
389,347.0
390,327.0
391,336.0
392,338.0
393,372.0
394,383.0
395,386.0
396,551.0
397,471.0
398,484.0
399,471.0
400,472.0
401,481.0
402,480.0
403,495.0
404,406.0
405,387.0
406,384.0
407,431.0
408,601.0
409,565.0
410,450.0
411,424.0
412,420.0
413,420.0
414,420.0
415,402.0
416,716.0
417,716.0
418,718.0
419,816.0
420,816.0
421,807.0
422,369.0
423,380.0
424,393.0
425,394.0
426,406.0
427,448.0
428,430.0
429,458.0
430,455.0
431,436.0
432,452.0
433,451.0
434,448.0
435,460.0
436,452.0
437,463.0
438,466.0
439,468.0
440,474.0
441,401.6
442,507.0
443,437.5
444,437.5
445,440.0
446,440.0
447,464.5
448,464.5
449,453.0
450,453.0
451,438.0
452,438.0
453,382.0
454,408.0
455,369.0
456,385.0
457,475.0
458,484.0
459,403.0
460,403.0
461,403.0
462,348.0
463,348.0
464,360.0
465,354.0
466,365.0
467,335.0
468,381.0
469,403.0
470,433.0
471,560.0
472,555.0
473,565.0
474,551.0
475,557.0
476,563.0
477,556.0
478,554.0
479,556.0
480,565.0
481,568.0
482,593.0
483,564.0
484,567.0
485,544.0
486,563.0
487,561.0
488,564.0
489,551.0
490,564.0
491,567.0
492,561.0
493,557.0
494,562.0
495,560.0
496,563.0
497,562.0
498,557.0
499,554.0
500,562.0
501,563.0
502,562.0
503,556.0
504,550.0
505,561.0
506,555.0
507,569.0
508,563.0
509,563.0
510,562.0
511,564.0
512,559.0
513,561.0
514,568.0
515,561.0
516,539.0
517,553.0
518,564.0
519,565.0
520,565.0
521,567.0
522,566.0
523,564.0
524,565.0
525,557.0
526,561.0
527,540.0
528,560.0
529,564.0
530,556.0
531,562.0
532,555.0
533,564.0
534,561.0
535,563.0
536,561.0
537,545.0
538,563.0
539,565.0
540,562.0
541,566.0
542,563.0
543,565.0
544,566.0
545,564.0
546,563.0
547,549.0
548,562.0
549,565.0
550,562.0
551,565.0
552,563.0
553,564.0
554,570.0
555,559.0
556,565.0
557,558.0
558,562.0
559,568.0
560,568.0
561,560.0
562,561.0
563,563.0
564,563.0
565,563.0
566,544.0
567,565.0
568,547.0
569,542.0
570,565.0
571,564.0
572,559.0
573,556.0
574,557.0
575,559.0
576,564.0
577,560.0
578,563.0
579,553.0
580,582.0
581,543.0
582,563.0
583,552.0
584,560.0
585,563.0
586,545.0
587,560.0
588,562.0
589,561.0
590,562.0
591,557.0
592,563.0
593,563.0
594,553.0
595,557.0
596,556.0
597,559.0
598,555.0
599,563.0
600,565.0
601,566.0
602,565.0
603,564.0
604,557.0
605,563.0
606,537.0
607,563.0
608,558.0
609,559.0
610,567.0
611,568.0
612,548.0
613,569.0
614,565.0
615,562.0
616,565.0
617,564.0
618,562.0
619,552.0
620,569.0
621,561.0
622,561.0
623,560.0
624,565.0
625,563.0
626,566.0
627,563.0
628,557.0
629,559.0
630,562.0
631,402.0
632,365.0
633,362.0
634,316.0
635,380.0
636,348.0
637,347.0
638,342.0
639,342.0
640,350.0
641,343.0
642,344.0
643,374.0
644,342.0
645,343.0
646,341.0
647,341.0
648,296.0
649,343.0
650,351.0
651,343.0
652,343.0
653,373.0
654,360.0
655,401.0
656,360.0
657,364.0
658,369.0
659,341.0
660,352.0
661,343.0
662,345.0
663,376.0
664,390.0
665,370.0
666,351.0
667,374.0
668,427.0
669,419.0
670,471.0
671,464.0
672,524.0
673,449.0
674,366.0
675,377.0
676,550.0
677,473.0
678,524.0
679,540.0
680,542.0
681,470.0
682,537.0
683,533.0
684,530.0
685,537.0
686,520.0
687,505.0
688,517.0
689,583.0
690,620.0
691,683.0
692,738.0
693,661.0
694,680.0
695,671.0
696,655.0
697,689.0
698,701.0
699,549.0
700,620.0
701,605.0
702,644.0
703,546.0
704,572.0
705,555.0
706,534.0
707,523.0
708,525.0
709,514.0
710,512.0
711,500.0
712,650.0
713,460.0
714,548.0
715,606.0
716,650.0
717,542.0
718,587.0
719,684.0
720,766.0
721,908.0
722,1045.0
723,404.0
724,414.0
725,410.0
726,455.0
727,458.0
728,481.0
729,487.0
730,555.0
731,588.0
732,551.0
733,632.0
734,446.0
735,442.0
736,442.0
737,521.0
738,541.0
739,566.0
740,522.0
741,540.0
742,568.0
743,445.0
744,443.0
745,431.0
746,526.0
747,545.0
748,573.0
749,465.0
750,670.0
751,664.0
752,656.0
753,653.0
754,647.0
755,640.0
756,601.0
757,680.0
758,665.0
759,658.0
760,641.0
761,668.0
762,587.0
763,473.0
764,468.0
765,470.0
766,469.0
767,478.0
768,506.0
769,484.0
770,479.0
771,457.0
772,447.0
773,537.0
774,424.0
775,425.0
776,464.0
777,475.0
778,469.0
779,486.0
780,489.0
781,552.0
782,476.0
783,473.0
784,461.0
785,463.0
786,471.0
787,467.0
788,480.0
789,487.0
790,480.0
791,478.0
792,450.0
793,506.0
794,512.0
795,498.0
796,553.0
797,538.0
798,533.0
799,555.0
800,620.0
801,557.0
802,579.0
803,550.0
804,507.0
805,497.0
806,526.0
807,490.0
808,529.0
809,524.0
810,458.0
811,437.0
812,503.0
813,462.0
814,464.0
815,468.0
816,468.0
817,467.0
818,461.0
819,454.0
820,730.0
821,729.0
822,741.0
823,733.0
824,737.0
825,726.0
826,731.0
827,735.0
828,724.0
829,735.0
830,733.0
831,719.0
832,720.0
833,725.0
834,726.0
835,729.0
836,738.0
837,735.0
838,744.0
839,740.0
840,732.0
841,735.0
842,747.0
843,734.0
844,492.0
845,504.0
846,498.0
847,539.0
848,554.0
849,546.0
850,592.0
851,578.0
852,601.0
853,603.0
854,387.0
855,403.0
856,401.0
857,379.0
858,399.0
859,417.0
860,419.0
861,382.0
862,382.0
863,415.0
864,427.0
865,433.0
866,672.0
867,687.0
868,715.0
869,827.0
870,741.0
871,752.0
872,782.0
873,769.0
874,453.0
875,522.0
876,583.0
877,578.0
878,615.0
879,620.0
880,388.0
881,420.0
882,421.0
883,443.0
884,544.0
885,578.0
886,419.0
887,513.0
888,434.0
889,437.0
890,538.0
891,454.0
892,451.0
893,521.0
894,474.0
895,450.9090909
896,375.7575758
897,386.2928349
898,467.9245283
899,455.8823529
900,447.6534296
901,464.4194757
902,452.5547445
903,444.4444444
904,432.0557491
905,612.0
906,611.0
907,615.0
908,633.0
909,632.0
910,630.0
911,628.0
912,649.0
913,607.0
914,602.0
915,838.0
916,824.0
917,810.0
918,722.0
919,724.0
920,405.0
921,453.0
922,456.0
923,514.0
924,502.0
925,527.0
926,533.0
927,630.0
928,457.0
929,491.0
930,499.0
931,560.0
932,471.0
933,505.0
934,501.0
935,570.0
936,519.0
937,463.0
938,426.0
939,491.0
940,423.0
941,413.0
942,423.0
943,417.0
944,433.0
945,410.0
946,426.0
947,425.0
948,426.0
949,431.0
950,426.0
951,424.0
952,429.0
953,381.0
954,543.3829974
955,546.7372134
956,591.8854415
957,584.6298916
958,577.012564
959,651.0
960,651.0
961,663.0
962,689.0
963,644.0
964,647.0
965,546.0
966,542.0
967,475.0
968,470.0
969,456.0
970,540.0
971,540.0
972,520.0
973,650.0
974,750.0
975,408.0
976,465.0
977,468.0
978,468.0
979,460.0
980,472.0
981,419.0
982,468.0
983,496.0
984,469.0
985,462.0
986,469.0
987,470.0
988,467.0
989,469.0
990,469.0
991,469.0
992,459.0
993,471.0
994,474.0
995,472.0
996,462.0
997,456.0
998,456.0
999,456.0
1000,454.0
1001,456.0
1002,463.0
1003,453.0
1004,461.0
1005,448.0
1006,447.0
1007,447.0
1008,445.0
1009,449.0
1010,445.0
1011,466.0
1012,428.93
1013,430.9
1014,430.9
1015,428.03
1016,431.96
1017,474.73
1018,432.87
1019,432.87
1020,428.03
1021,425.9
1022,425.0
1023,427.87
1024,428.93
1025,430.0
1026,425.9
1027,413.93
1028,438.93
1029,440.0
1030,440.0
1031,438.93
1032,435.0
1033,438.03
1034,377.0
1035,500.0
1036,520.0
1037,534.0
1038,518.0
1039,526.0
1040,518.0
1041,468.0
1042,459.0
1043,472.0
1044,447.0
1045,410.0
1046,469.0
1047,470.0
1048,463.0
1049,465.0
1050,466.0
1051,470.0
1052,430.0
1053,468.0
1054,458.0
1055,456.0
1056,458.0
1057,541.0
1058,536.0
1059,539.0
1060,535.0
1061,601.0
1062,574.0
1063,494.0
1064,414.0
1065,545.0
1066,579.0
1067,568.0
1068,564.0
1069,557.0
1070,550.0
1071,571.0
1072,572.0
1073,567.0
1074,376.0
1075,376.0
1076,376.0
1077,375.0
1078,384.0
1079,377.0
1080,376.0
1081,376.0
1082,459.0
1083,451.0
1084,473.0
1085,402.0
1086,519.0
1087,515.0
1088,515.0
1089,516.0
1090,550.0
1091,536.0
1092,516.0
1093,514.0
1094,544.0
1095,519.0
1096,521.0
1097,515.0
1098,432.0
1099,423.0
1100,460.0
1101,463.0
1102,487.0
1103,487.0
1104,496.0
1105,496.0
1106,496.0
1107,518.0
1108,515.0
1109,515.0
1110,515.0
1111,521.0
1112,528.0
1113,554.0
1114,554.0
1115,554.0
1116,569.0
1117,569.0
1118,569.0
1119,565.0
1120,565.0
1121,565.0
1122,568.0
1123,568.0
1124,568.0
1125,568.0
1126,570.0
1127,570.0
1128,570.0
1129,570.0
1130,570.0
1131,577.0
1132,577.0
1133,570.0
1134,573.0
1135,574.0
1136,576.0
1137,576.0
1138,576.0
1139,578.0
1140,589.0
1141,604.0
1142,604.0
1143,604.0
1144,600.0
1145,600.0
1146,598.0
1147,615.0
1148,624.0
1149,624.0
1150,624.0
1151,632.0
1152,632.0
1153,643.0
1154,643.0
1155,658.0
1156,657.0
1157,658.0
1158,658.0
1159,658.0
1160,657.0
1161,657.0
1162,657.0
1163,657.0
1164,657.0
1165,670.0
1166,670.0
1167,670.0
1168,670.0
1169,654.0
1170,654.0
1171,646.0
1172,646.0
1173,646.0
1174,666.0
1175,666.0
1176,666.0
1177,669.0
1178,669.0
1179,669.0
1180,669.0
1181,672.0
1182,676.0
1183,676.0
1184,677.0
1185,676.0
1186,677.0
1187,682.0
1188,699.0
1189,699.0
1190,698.0
1191,694.0
1192,697.0
1193,709.0
1194,709.0
1195,709.0
1196,699.0
1197,728.0
1198,730.0
1199,728.0
1200,721.0
1201,721.0
1202,732.0
1203,733.0
1204,744.0
1205,755.0
1206,755.0
1207,756.0
1208,755.0
1209,764.0
1210,769.0
1211,769.0
1212,774.0
1213,772.0
1214,771.0
1215,771.0
1216,785.0
1217,787.0
1218,788.0
1219,787.0
1220,799.0
1221,796.0
1222,794.0
1223,780.0
1224,791.0
1225,824.0
1226,843.0
1227,875.0
1228,876.0
1229,896.0
1230,608.0
1231,459.0
1232,475.0
1233,543.0
1234,549.0
1235,510.0
1236,572.0
1237,572.0
1238,512.0
1239,512.0
1240,631.0
1241,649.0
1242,559.0
1243,639.0
1244,590.0
1245,595.0
1246,662.0
1247,666.0
1248,522.0
1249,537.0
1250,526.0
1251,693.0
1252,690.0
1253,530.0
1254,530.0
1255,530.0
1256,535.0
1257,530.0
1258,530.0
1259,530.0
1260,530.0
1261,530.0
1262,530.0
1263,530.0
1264,535.0
1265,535.0
1266,530.0
1267,530.0
1268,530.0
1269,530.0
1270,530.0
1271,530.0
1272,530.0
1273,530.0
1274,530.0
1275,530.0
1276,540.0
1277,530.0
1278,535.0
1279,530.0
1280,565.0
1281,570.0
1282,565.0
1283,570.0
1284,565.0
1285,570.0
1286,565.0
1287,565.0
1288,565.0
1289,570.0
1290,565.0
1291,570.0
1292,580.0
1293,570.0
1294,565.0
1295,560.0
1296,565.0
1297,560.0
1298,565.0
1299,575.0
1300,565.0
1301,565.0
1302,570.0
1303,570.0
1304,570.0
1305,570.0
1306,570.0
1307,570.0
1308,570.0
1309,570.0
1310,575.0
1311,575.0
1312,575.0
1313,570.0
1314,575.0
1315,575.0
1316,575.0
1317,575.0
1318,575.0
1319,585.0
1320,570.0
1321,570.0
1322,570.0
1323,560.0
1324,570.0
1325,570.0
1326,570.0
1327,570.0
1328,560.0
1329,565.0
1330,565.0
1331,570.0
1332,575.0
1333,575.0
1334,570.0
1335,530.0
1336,530.0
1337,530.0
1338,525.0
1339,525.0
1340,530.0
1341,530.0
1342,530.0
1343,530.0
1344,535.0
1345,545.0
1346,550.0
1347,540.0
1348,550.0
1349,550.0
1350,545.0
1351,545.0
1352,550.0
1353,545.0
1354,550.0
1355,550.0
1356,545.0
1357,545.0
1358,545.0
1359,545.0
1360,545.0
1361,545.0
1362,550.0
1363,545.0
1364,545.0
1365,545.0
1366,550.0
1367,550.0
1368,540.0
1369,540.0
1370,540.0
1371,540.0
1372,540.0
1373,545.0
1374,545.0
1375,540.0
1376,540.0
1377,540.0
1378,540.0
1379,540.0
1380,540.0
1381,545.0
1382,540.0
1383,550.0
1384,555.0
1385,550.0
1386,545.0
1387,550.0
1388,550.0
1389,550.0
1390,550.0
1391,555.0
1392,550.0
1393,555.0
1394,555.0
1395,550.0
1396,550.0
1397,550.0
1398,550.0
1399,550.0
1400,550.0
1401,540.0
1402,550.0
1403,545.0
1404,550.0
1405,545.0
1406,545.0
1407,545.0
1408,545.0
1409,540.0
1410,545.0
1411,545.0
1412,545.0
1413,545.0
1414,545.0
1415,545.0
1416,545.0
1417,545.0
1418,545.0
1419,545.0
1420,540.0
1421,540.0
1422,540.0
1423,540.0
1424,565.0
1425,570.0
1426,565.0
1427,565.0
1428,560.0
1429,570.0
1430,565.0
1431,570.0
1432,570.0
1433,565.0
1434,565.0
1435,565.0
1436,565.0
1437,565.0
1438,570.0
1439,570.0
1440,575.0
1441,565.0
1442,570.0
1443,570.0
1444,565.0
1445,550.0
1446,550.0
1447,550.0
1448,545.0
1449,550.0
1450,550.0
1451,565.0
1452,575.0
1453,605.0
1454,555.0
1455,560.0
1456,565.0
1457,575.0
1458,565.0
1459,565.0
1460,555.0
1461,575.0
1462,560.0
1463,560.0
1464,540.0
1465,565.0
1466,590.0
1467,540.0
1468,555.0
1469,560.0
1470,555.0
1471,555.0
1472,555.0
1473,555.0
1474,560.0
1475,555.0
1476,555.0
1477,555.0
1478,555.0
1479,555.0
1480,555.0
1481,560.0
1482,555.0
1483,555.0
1484,555.0
1485,555.0
1486,555.0
1487,555.0
1488,560.0
1489,560.0
1490,560.0
1491,520.0
1492,553.0
1493,572.0
1494,548.0
1495,577.0
1496,566.0
1497,571.0
1498,576.0
1499,586.0
1500,583.0
1501,588.0
1502,600.0
1503,587.0
1504,580.0
1505,600.0
1506,656.0
1507,648.0
1508,646.0
1509,660.0
1510,587.0
1511,548.0
1512,550.0
1513,582.0
1514,608.0
1515,554.0
1516,632.0
1517,619.0
1518,608.0
1519,602.0
1520,596.0
1521,604.0
1522,613.0
1523,639.0
1524,640.0
1525,642.0
1526,576.0
1527,604.0
1528,573.0
1529,597.0
1530,627.0
1531,567.0
1532,567.0
1533,568.0
1534,644.0
1535,730.0
1536,571.0
1537,604.0
1538,605.0
1539,620.0
1540,648.0
1541,649.0
1542,645.0
1543,629.0
1544,638.0
1545,672.0
1546,577.0
1547,642.0
1548,633.0
1549,662.0
1550,683.0
1551,700.0
1552,692.0
1553,713.0
1554,730.0
1555,672.0
1556,613.0
1557,660.0
1558,712.0
1559,689.0
1560,740.0
1561,654.0
1562,666.0
1563,599.0
1564,608.0
1565,557.0
1566,649.0
1567,686.0
1568,685.0
1569,712.0
1570,722.0
1571,764.0
1572,712.0
1573,712.0
1574,713.0
1575,736.0
1576,742.0
1577,747.0
1578,742.0
1579,752.0
1580,562.0
1581,653.0
1582,634.0
1583,628.0
1584,528.0
1585,531.0
1586,599.0
1587,618.0
1588,623.0
1589,627.0
1590,630.0
1591,657.0
1592,648.0
1593,688.0
1594,650.0
1595,675.0
1596,664.0
1597,641.0
1598,640.0
1599,658.0
1600,643.0
1601,622.0
1602,546.0
1603,720.0
1604,599.0
1605,615.0
1606,664.0
1607,642.0
1608,676.0
1609,682.0
1610,670.0
1611,695.0
1612,677.0
1613,619.0
1614,675.0
1615,678.0
1616,675.0
1617,743.0
1618,721.0
1619,741.0
1620,731.0
1621,750.0
1622,730.0
1623,745.0
1624,763.0
1625,740.0
1626,732.0
1627,735.0
1628,744.0
1629,654.0
1630,657.0
1631,747.0
1632,753.0
1633,648.0
1634,648.0
1635,727.0
1636,738.0
1637,807.0
1638,830.0
1639,695.0
1640,637.0
1641,651.0
1642,674.0
1643,678.0
1644,668.0
1645,645.0
1646,631.0
1647,661.0
1648,628.0
1649,552.0
1650,630.0
1651,584.0
1652,633.0
1653,600.0
1654,630.0
1655,604.0
1656,596.0
1657,614.0
1658,606.0
1659,624.0
1660,622.0
1661,583.0
1662,627.0
1663,603.0
1664,650.0
1665,603.0
1666,651.0
1667,605.0
1668,760.0
1669,770.0
1670,740.0
1671,645.0
1672,612.0
1673,652.0
1674,612.0
1675,624.0
1676,681.0
1677,745.0
1678,681.0
1679,750.0
1680,434.0
1681,433.0
1682,460.0
1683,471.0
1684,420.0
1685,481.0
1686,490.0
1687,497.0
1688,507.0
1689,461.0
1690,465.0
1691,489.0
1692,493.0
1693,508.0
1694,481.0
1695,500.0
1696,515.0
1697,529.0
1698,540.0
1699,495.0
1700,480.0
1701,530.0
1702,509.0
1703,613.0
1704,445.0
1705,460.0
1706,487.0
1707,494.0
1708,462.0
1709,476.0
1710,492.0
1711,502.0
1712,471.0
1713,485.0
1714,498.0
1715,509.0
1716,482.0
1717,512.0
1718,526.0
1719,497.0
1720,554.0
1721,579.0
1722,586.0
1723,605.0
1724,474.0
1725,490.0
1726,472.0
1727,496.0
1728,503.0
1729,505.0
1730,548.0
1731,529.0
1732,457.0
1733,443.0
1734,510.0
1735,500.0
1736,472.0
1737,459.0
1738,537.0
1739,526.0
1740,450.0
1741,496.0
1742,535.0
1743,611.0
1744,540.0
1745,577.0
1746,655.0
1747,523.0
1748,548.0
1749,506.0
1750,519.0
1751,494.0
1752,548.0
1753,656.0
1754,637.0
1755,703.0
1756,596.0
1757,469.0
1758,625.0
1759,510.0
1760,478.0
1761,480.0
1762,480.0
1763,521.0
1764,490.0
1765,560.0
1766,610.0
1767,370.0
1768,375.0
1769,375.0
1770,375.0
1771,400.0
1772,400.0
1773,400.0
1774,405.0
1775,435.0
1776,399.0
1777,404.0
1778,405.0
1779,420.0
1780,392.0
1781,428.0
1782,473.0
1783,399.0
1784,399.0
1785,400.0
1786,383.0
1787,383.0
1788,399.0
1789,423.0
1790,377.0
1791,585.0
1792,590.0
1793,591.0
1794,580.0
1795,594.0
1796,587.0
1797,583.0
1798,590.0
1799,595.0
1800,594.0
1801,577.0
1802,597.0
1803,600.0
1804,619.0
1805,600.0
1806,577.0
1807,566.0
1808,538.0
1809,545.0
1810,560.0
1811,554.0
1812,547.0
1813,518.0
1814,516.0
1815,558.0
1816,582.0
1817,561.0
1818,561.0
1819,586.0
1820,554.0
1821,554.0
1822,577.0
1823,629.0
1824,629.0
1825,641.0
1826,552.0
1827,552.0
1828,577.0
1829,569.0
1830,569.0
1831,594.0
1832,597.0
1833,597.0
1834,612.0
1835,642.0
1836,569.0
1837,622.0
1838,389.0
1839,374.0
1840,389.0
1841,401.0
1842,448.0
1843,392.0
1844,413.0
1845,466.0
1846,507.0
1847,410.0
1848,388.0
1849,445.0
1850,388.0
1851,398.0
1852,377.0
1853,404.0
1854,398.0
1855,411.0
1856,391.0
1857,389.0
1858,435.0
1859,392.0
1860,389.0
1861,424.0
1862,445.0
1863,433.0
1864,586.0
1865,556.0
1866,397.0
1867,444.0
1868,367.0
1869,414.0
1870,391.0
1871,406.0
1872,477.0
1873,405.0
1874,472.0
1875,490.0
1876,528.0
1877,529.0
1878,409.0
1879,397.0
1880,398.0
1881,394.0
1882,414.0
1883,426.0
1884,434.0
1885,434.0
1886,431.0
1887,401.0
1888,398.0
1889,393.0
1890,420.0
1891,537.0
1892,410.0
1893,411.0
1894,426.0
1895,453.0
1896,469.0
1897,426.0
1898,499.0
1899,459.0
1900,454.0
1901,455.0
1902,555.0
1903,584.0
1904,508.0
1905,624.0
1906,709.0
1907,710.0
1908,447.0
1909,449.0
1910,472.0
1911,414.0
1912,423.0
1913,456.0
1914,468.0
1915,523.0
1916,525.0
1917,554.0
1918,590.0
1919,602.0
1920,456.0
1921,446.0
1922,443.0
1923,392.0
1924,402.0
1925,452.0
1926,519.0
1927,356.0
1928,351.0
1929,358.0
1930,358.0
1931,356.0
1932,527.0
1933,384.0
1934,389.0
1935,411.0
1936,449.0
1937,374.0
1938,399.0
1939,394.0
1940,390.0
1941,400.0
1942,460.0
1943,653.0
1944,645.0
1945,620.0
1946,573.0
1947,553.0
1948,401.0
1949,420.0
1950,390.0
1951,389.0
1952,379.0
1953,389.0
1954,450.0
1955,453.0
1956,462.0
1957,464.0
1958,473.0
1959,468.0
1960,458.0
1961,472.0
1962,475.0
1963,476.0
1964,489.0
1965,471.0
1966,464.0
1967,469.0
1968,463.0
1969,467.0
1970,451.0
1971,481.0
1972,452.0
1973,460.0
1974,468.0
1975,536.0
1976,460.0
1977,614.0
1978,422.0
1979,423.0
1980,420.0
1981,402.0
1982,417.0
1983,417.0
1984,423.0
1985,418.0
1986,421.0
1987,421.0
1988,421.0
1989,422.0
1990,417.0
1991,483.0
1992,510.0
1993,482.0
1994,508.0
1995,446.0
1996,461.0
1997,435.0
1998,434.0
1999,433.0
2000,425.0
2001,428.0
2002,575.0
2003,575.0
2004,549.0
2005,549.0
2006,561.0
2007,561.0
2008,592.0
2009,592.0
2010,599.0
2011,599.0
2012,608.0
2013,608.0
2014,622.0
2015,622.0
2016,604.0
2017,604.0
2018,576.0
2019,576.0
2020,674.0
2021,674.0
2022,520.0
2023,578.0
2024,579.0
2025,591.0
2026,587.0
2027,577.0
2028,591.0
2029,585.0
2030,578.0
2031,579.0
2032,585.0
2033,606.0
2034,559.0
2035,576.0
2036,636.0
2037,592.0
2038,590.0
2039,604.0
2040,552.0
2041,552.0
2042,547.0
2043,547.0
2044,548.0
2045,548.0
2046,548.0
2047,548.0
2048,541.0
2049,541.0
2050,554.0
2051,554.0
2052,564.0
2053,564.0
2054,557.0
2055,557.0
2056,562.0
2057,562.0
2058,570.0
2059,570.0
2060,564.0
2061,564.0
2062,581.0
2063,581.0
2064,519.0
2065,535.0
2066,532.0
2067,530.0
2068,544.0
2069,542.0
2070,641.0
2071,542.0
2072,514.0
2073,514.0
2074,526.0
2075,527.0
2076,524.0
2077,524.0
2078,530.0
2079,522.0
2080,577.0
2081,673.0
2082,607.0
2083,538.0
2084,524.0
2085,517.0
2086,512.0
2087,466.0
2088,460.0
2089,470.0
2090,426.0
2091,525.0
2092,397.0
2093,533.0
2094,419.0
2095,421.0
2096,423.0
2097,546.0
2098,449.0
2099,564.0
2100,403.0
2101,394.0
2102,390.0
2103,412.0
2104,388.0
2105,448.0
2106,413.0
2107,413.0
2108,420.0
2109,441.0
2110,441.0
2111,419.0
2112,425.0
2113,385.0
2114,389.0
2115,388.0
2116,391.0
2117,401.0
2118,394.0
2119,476.0
2120,476.0
2121,498.0
2122,573.0
2123,649.0
2124,605.0
2125,591.0
2126,596.0
2127,572.0
2128,598.0
2129,596.0
2130,585.0
2131,578.0
2132,581.0
2133,711.0
2134,682.0
2135,693.0
2136,700.0
2137,680.0
2138,742.0
2139,697.0
2140,678.0
2141,500.0
2142,550.0
2143,600.0
2144,505.0
2145,511.0
2146,520.0
2147,525.0
2148,553.0
2149,568.0
2150,566.0
2151,509.0
2152,501.0
2153,510.0
2154,509.0
2155,516.0
2156,532.0
2157,567.0
2158,728.0
2159,404.0
2160,373.0
2161,330.0
2162,400.0
2163,515.0
2164,355.0
2165,586.0
2166,300.0
2167,679.0
2168,588.0
2169,515.0
2170,680.0
2171,565.0
2172,525.0
2173,517.0
2174,604.0
2175,451.0
2176,547.0
2177,559.0
2178,548.0
2179,542.0
2180,529.0
2181,382.0
2182,515.0
2183,467.0
2184,302.0
2185,360.0
2186,520.0
2187,492.0
2188,440.0
2189,540.0
2190,510.0
2191,553.0
2192,574.0
2193,603.0
2194,621.0
2195,630.0
2196,448.0
2197,377.0
2198,479.0
2199,484.0
2200,507.0
2201,525.0
2202,527.0
2203,533.0
2204,545.0
2205,553.0
2206,576.0
2207,592.0
2208,624.0
2209,627.0
2210,634.0
2211,642.0
2212,657.0
2213,658.0
2214,670.0
2215,669.0
2216,683.0
2217,700.0
2218,719.0
2219,593.0
2220,557.0
2221,596.0
2222,608.0
2223,627.0
2224,650.0
2225,531.0
2226,608.0
2227,606.0
2228,500.0
2229,527.0
2230,303.0
2231,327.0
2232,641.0
2233,641.0
2234,641.0
2235,511.0
2236,547.0
2237,570.0
2238,621.0
2239,557.0
2240,497.0
2241,571.0
2242,657.0
2243,603.0
2244,674.0
2245,771.0
2246,712.0
2247,506.0
2248,514.0
2249,591.0
2250,609.0
2251,529.0
2252,574.0
2253,586.0
2254,639.0
2255,674.0
2256,419.0
2257,549.0
2258,614.0
2259,445.0
2260,500.0
2261,478.0
2262,476.0
2263,475.0
2264,462.0
2265,505.0
2266,622.0
2267,561.0
2268,566.0
2269,589.0
2270,665.0
2271,692.0
2272,775.0
2273,668.0
2274,503.0
2275,664.0
2276,523.0
2277,519.0
2278,526.0
2279,492.0
2280,577.0
2281,489.0
2282,579.0
2283,565.0
2284,660.0
2285,595.0
2286,491.0
2287,514.0
2288,580.0
2289,577.0
2290,576.0
2291,543.0
2292,554.0
2293,546.0
2294,330.0
2295,663.0
2296,519.0
2297,527.0
2298,516.0
2299,513.0
2300,408.0
2301,411.0
2302,418.0
2303,368.0
2304,406.0
2305,414.0
2306,413.0
2307,413.0
2308,402.0
2309,414.0
2310,441.0
2311,403.0
2312,439.0
2313,368.0
2314,398.0
2315,448.0
2316,535.0
2317,527.0
2318,542.0
2319,538.0
2320,543.0
2321,545.0
2322,538.0
2323,541.0
2324,535.0
2325,536.0
2326,540.0
2327,542.0
2328,543.0
2329,536.0
2330,537.0
2331,525.0
2332,530.0
2333,539.0
2334,535.0
2335,538.0
2336,536.0
2337,532.0
2338,552.0
2339,528.0
2340,542.0
2341,550.0
2342,547.0
2343,536.0
2344,535.0
2345,443.21
2346,431.69
2347,440.17
2348,445.2
2349,430.06
2350,435.32
2351,442.64
2352,435.68
2353,460.4
2354,456.06
2355,457.84
2356,443.7
2357,521.37
2358,455.38
2359,458.38
2360,452.85
2361,459.21
2362,456.91
2363,459.15
2364,465.84
2365,460.4
2366,519.0
2367,463.0
2368,463.0
2369,505.0
2370,467.0
2371,466.0
2372,566.0
2373,467.0
2374,537.0
2375,538.0
2376,549.0
2377,549.0
2378,541.0
2379,550.0
2380,601.0
2381,588.0
2382,608.0
2383,725.0
2384,665.0
2385,720.0
2386,717.0
2387,645.0
2388,711.0
2389,788.0
2390,718.0
2391,790.0
2392,423.0
2393,423.0
2394,429.0
2395,457.0
2396,462.0
2397,437.0
2398,410.0
2399,516.0
2400,530.0
2401,500.0
2402,497.0
2403,493.0
2404,496.0
2405,505.0
2406,512.0
2407,494.0
2408,496.0
2409,490.0
2410,493.0
2411,494.0
2412,404.0
2413,476.0
2414,493.0
2415,494.0
2416,519.0
2417,526.0
2418,520.0
2419,528.0
2420,526.0
2421,528.0
2422,529.0
2423,519.0
2424,519.0
2425,519.0
2426,519.0
2427,565.0
2428,568.0
2429,564.0
2430,569.0
2431,532.0
2432,484.0
2433,522.0
2434,493.0
2435,530.0
2436,505.0
2437,562.0
2438,581.0
2439,608.0
2440,625.0
2441,532.0
2442,484.0
2443,522.0
2444,493.0
2445,530.0
2446,505.0
2447,562.0
2448,581.0
2449,608.0
2450,625.0
2451,401.0
2452,411.0
2453,467.0
2454,413.0
2455,409.0
2456,376.0
2457,455.0
2458,402.0
2459,377.0
2460,388.0
2461,398.0
2462,395.0
2463,387.0
2464,417.0
2465,490.0
2466,441.0
2467,434.0
2468,409.0
2469,429.0
2470,506.0
2471,518.0
2472,444.0
2473,460.0
2474,552.0
2475,565.0
2476,449.0
2477,468.0
2478,579.0
2479,586.0
2480,459.0
2481,488.0
2482,594.0
2483,609.0
2484,473.0
2485,506.0
2486,624.0
2487,639.0
2488,525.0
2489,721.0
2490,671.0
2491,611.0
2492,732.0
2493,518.0
2494,525.0
2495,526.0
2496,657.0
2497,645.0
2498,561.0
2499,525.5
2500,522.0
2501,529.5
2502,530.5
2503,646.0
2504,424.0
2505,456.0
2506,438.0
2507,420.0
2508,452.0
2509,422.0
2510,420.0
2511,424.0
2512,532.0
2513,504.0
2514,604.0
2515,492.0
2516,582.0
2517,386.0
2518,388.0
2519,448.0
2520,450.0
2521,438.0
2522,472.0
2523,515.0
2524,522.0
2525,523.0
2526,505.0
2527,448.0
2528,466.0
2529,473.0
2530,508.0
2531,511.0
2532,527.0
2533,550.0
2534,582.0
2535,521.0
2536,532.0
2537,525.0
2538,539.0
2539,516.0
2540,533.0
2541,496.0
2542,528.0
2543,529.0
2544,553.0
2545,597.0
2546,572.0
2547,579.0
2548,432.0
2549,486.0
2550,569.0
2551,565.0
2552,544.0
2553,524.0
2554,481.0
2555,500.0
2556,565.0
2557,513.0
2558,526.0
2559,423.0
2560,416.0
2561,448.0
2562,459.0
2563,480.0
2564,462.0
2565,451.0
2566,508.0
2567,470.0
2568,449.0
2569,446.0
2570,486.0
2571,482.0
2572,451.0
2573,479.0
2574,492.0
2575,483.0
2576,483.0
2577,492.0
2578,490.0
2579,490.0
2580,529.0
2581,479.0
2582,492.0
2583,527.0
2584,518.0
2585,521.0
2586,526.0
2587,536.0
2588,527.0
2589,529.0
2590,534.0
2591,552.0
2592,530.0
2593,546.0
2594,543.0
2595,560.0
2596,522.0
2597,501.0
2598,612.0
2599,597.0
2600,603.0
2601,478.0
2602,489.0
2603,458.0
2604,426.0
2605,517.0
2606,538.0
2607,535.0
2608,540.0
2609,530.0
2610,538.0
2611,535.0
2612,535.0
2613,539.0
2614,585.0
2615,584.0
2616,587.0
2617,560.0
2618,480.0
2619,476.0
2620,483.0
2621,476.0
2622,480.0
2623,530.0
2624,536.0
2625,527.0
2626,534.0
2627,530.0
2628,581.0
2629,640.0
2630,551.0
2631,563.0
2632,562.0
2633,562.0
2634,539.0
2635,572.0
2636,572.0
2637,493.0
2638,496.0
2639,492.0
2640,476.0
2641,452.0
2642,452.0
2643,452.0
2644,452.0
2645,461.0
2646,502.0
2647,660.0
2648,541.0
2649,505.0
2650,672.0
2651,545.0
2652,513.0
2653,674.0
2654,650.0
2655,566.0
2656,410.0
2657,420.0
2658,453.0
2659,504.0
2660,386.0
2661,405.0
2662,405.0
2663,408.0
2664,552.0
2665,426.0
2666,432.0
2667,440.0
2668,450.0
2669,525.0
2670,585.0
2671,460.0
2672,575.0
2673,494.0
2674,562.0
2675,550.0
2676,467.0
2677,467.0
2678,466.0
2679,469.0
2680,472.0
2681,468.0
2682,467.0
2683,473.0
2684,586.0
2685,600.0
2686,587.0
2687,414.0
2688,403.0
2689,504.0
2690,432.0
2691,413.0
2692,437.0
2693,404.0
2694,487.0
2695,528.0
2696,488.0
2697,577.0
2698,619.0
2699,560.0
2700,696.0
2701,579.0
2702,626.0
2703,627.0
2704,547.0
2705,554.0
2706,553.0
2707,542.0
2708,568.0
2709,636.0
2710,651.0
2711,642.0
2712,652.0
2713,642.0
2714,644.0
2715,644.0
2716,644.0
2717,647.0
2718,638.0
2719,633.0
2720,653.0
2721,652.0
2722,660.0
2723,657.0
2724,649.0
2725,669.0
2726,669.0
2727,652.0
2728,644.0
2729,612.0
2730,615.0
2731,624.0
2732,609.0
2733,628.0
2734,532.0
2735,628.0
2736,671.0
2737,531.0
2738,578.0
2739,607.0
2740,642.0
2741,652.0
2742,537.0
2743,585.0
2744,616.0
2745,659.0
2746,658.0
2747,537.0
2748,580.0
2749,609.0
2750,646.0
2751,654.0
2752,538.0
2753,580.0
2754,612.0
2755,649.0
2756,655.0
2757,544.0
2758,583.0
2759,617.0
2760,647.0
2761,656.0
2762,543.0
2763,585.0
2764,614.0
2765,640.0
2766,644.0
2767,545.0
2768,586.0
2769,619.0
2770,653.0
2771,652.0
2772,532.0
2773,574.0
2774,611.0
2775,641.0
2776,656.0
2777,530.0
2778,576.0
2779,608.0
2780,645.0
2781,658.0
2782,536.0
2783,581.0
2784,614.0
2785,647.0
2786,659.0
2787,527.0
2788,578.0
2789,603.0
2790,645.0
2791,654.0
2792,534.0
2793,577.0
2794,601.0
2795,673.0
2796,674.0
2797,534.0
2798,578.0
2799,603.0
2800,672.0
2801,673.0
2802,538.0
2803,578.0
2804,602.0
2805,660.0
2806,668.0
2807,549.0
2808,593.0
2809,623.0
2810,654.0
2811,667.0
2812,532.0
2813,573.0
2814,605.0
2815,641.0
2816,649.0
2817,542.0
2818,577.0
2819,616.0
2820,671.0
2821,671.0
2822,532.0
2823,560.0
2824,616.0
2825,671.0
2826,671.0
2827,533.0
2828,575.0
2829,599.0
2830,661.0
2831,667.0
2832,598.0
2833,671.0
2834,645.0
2835,517.0
2836,556.0
2837,595.0
2838,654.0
2839,665.0
2840,507.0
2841,550.0
2842,572.0
2843,630.0
2844,635.0
2845,512.0
2846,544.0
2847,575.0
2848,628.0
2849,628.0
2850,512.0
2851,551.0
2852,581.0
2853,635.0
2854,644.0
2855,505.0
2856,543.0
2857,573.0
2858,632.0
2859,634.0
2860,512.0
2861,547.0
2862,569.0
2863,638.0
2864,642.0
2865,493.0
2866,511.0
2867,521.0
2868,537.0
2869,550.0
2870,558.0
2871,584.0
2872,620.0
2873,644.0
2874,657.0
2875,595.0
2876,628.0
2877,657.0
2878,688.0
2879,695.0
2880,555.0
2881,555.0
2882,555.0
2883,555.0
2884,565.0
2885,565.0
2886,565.0
2887,565.0
2888,509.0
2889,530.0
2890,552.0
2891,583.0
2892,599.0
2893,622.0
2894,565.0
2895,618.0
2896,664.0
2897,501.0
2898,504.0
2899,515.0
2900,468.0
2901,477.0
2902,450.0
2903,538.0
2904,555.0
2905,568.0
2906,550.0
2907,516.0
2908,598.0
2909,617.0
2910,534.0
2911,670.0
2912,687.0
2913,546.0
2914,580.0
2915,584.0
2916,591.0
2917,702.0
2918,709.0
2919,696.0
2920,691.0
2921,613.0
2922,554.0
2923,646.0
2924,683.0
2925,592.0
2926,654.0
2927,681.0
2928,541.0
2929,549.0
2930,559.0
2931,521.0
2932,549.0
2933,555.0
2934,566.0
2935,569.0
2936,548.0
2937,560.0
2938,566.0
2939,571.0
2940,534.0
2941,543.0
2942,550.0
2943,563.0
2944,560.0
2945,552.0
2946,585.0
2947,588.0
2948,475.0
2949,507.0
2950,527.0
2951,554.0
2952,587.0
2953,400.0
2954,413.0
2955,435.0
2956,473.0
2957,502.0
2958,508.0
2959,421.0
2960,449.0
2961,489.0
2962,534.0
2963,556.0
2964,558.0
2965,461.0
2966,494.0
2967,532.0
2968,580.0
2969,600.0
2970,610.0
2971,429.0
2972,436.0
2973,452.0
2974,470.0
2975,482.0
2976,492.0
2977,542.0
2978,561.0
2979,570.0
2980,576.0
2981,579.0
2982,585.0
2983,610.0
2984,450.0
2985,467.0
2986,469.0
2987,482.0
2988,486.0
2989,450.0
2990,467.0
2991,469.0
2992,482.0
2993,486.0
2994,457.0
2995,473.0
2996,475.0
2997,487.0
2998,491.0
2999,459.0
3000,475.0
3001,479.0
3002,490.0
3003,493.0
3004,459.0
3005,475.0
3006,479.0
3007,490.0
3008,493.0
3009,459.0
3010,473.0
3011,474.0
3012,485.0
3013,488.0
3014,523.0
3015,631.0
3016,630.0
3017,490.0
3018,487.0
3019,462.0
3020,477.0
3021,478.0
3022,489.0
3023,493.0
3024,458.0
3025,508.0
3026,525.0
3027,546.0
3028,568.0
3029,595.0
3030,637.0
3031,640.0
3032,623.0
3033,655.0
3034,669.0
3035,671.0
3036,634.0
3037,643.0
3038,491.0
3039,491.0
3040,491.0
3041,492.0
3042,491.0
3043,485.0
3044,485.0
3045,496.0
3046,635.0
3047,634.0
3048,616.0
3049,525.0
3050,457.0
3051,437.0
3052,424.0
3053,628.0
3054,619.0
3055,528.0
3056,475.0
3057,523.0
3058,456.0
3059,599.0
3060,500.0
3061,433.0
3062,417.0
3063,538.0
3064,537.0
3065,544.0
3066,533.0
3067,536.0
3068,535.0
3069,535.0
3070,538.0
3071,585.0
3072,584.0
3073,588.0
3074,560.0
3075,483.0
3076,478.0
3077,484.0
3078,480.0
3079,485.0
3080,527.0
3081,537.0
3082,536.0
3083,572.0
3084,630.0
3085,492.0
3086,497.0
3087,504.0
3088,501.0
3089,491.0
3090,497.0
3091,504.0
3092,500.0
3093,488.0
3094,495.0
3095,528.0
3096,565.0
3097,566.0
3098,623.0
3099,653.0
3100,685.0
3101,500.0
3102,505.0
3103,554.0
3104,603.0
3105,615.0
3106,644.0
3107,675.0
3108,682.0
3109,491.0
3110,499.0
3111,551.0
3112,594.0
3113,597.0
3114,643.0
3115,682.0
3116,694.0
3117,417.0
3118,502.0
3119,430.0
3120,429.0
3121,519.0
3122,450.0
3123,441.0
3124,512.0
3125,462.0
3126,390.0
3127,448.0
3128,399.0
3129,411.0
3130,451.0
3131,418.0
3132,425.0
3133,460.0
3134,410.0
3135,400.0
3136,466.0
3137,410.0
3138,424.0
3139,480.0
3140,434.0
3141,434.0
3142,479.0
3143,430.0
3144,402.0
3145,471.0
3146,412.0
3147,425.0
3148,487.0
3149,430.0
3150,438.0
3151,480.0
3152,437.0
3153,409.0
3154,495.0
3155,427.0
3156,433.0
3157,519.0
3158,447.0
3159,444.0
3160,511.0
3161,458.0
3162,421.0
3163,517.0
3164,437.0
3165,445.0
3166,550.0
3167,459.0
3168,449.0
3169,528.0
3170,480.0
3171,433.0
3172,544.0
3173,448.0
3174,454.0
3175,569.0
3176,465.0
3177,453.0
3178,549.0
3179,499.0
3180,738.0
3181,735.0
3182,738.0
3183,709.0
3184,747.0
3185,748.0
3186,740.0
3187,741.0
3188,741.0
3189,731.0
3190,741.0
3191,728.0
3192,726.0
3193,725.0
3194,731.0
3195,727.0
3196,730.0
3197,731.0
3198,732.0
3199,718.0
3200,743.0
3201,738.0
3202,732.0
3203,731.0
3204,733.0
3205,729.0
3206,738.0
3207,720.0
3208,720.0
3209,728.0
3210,723.0
3211,725.0
3212,729.0
3213,742.0
3214,740.0
3215,726.0
3216,726.0
3217,733.0
3218,729.0
3219,613.0
3220,615.0
3221,631.0
3222,651.0
3223,585.0
3224,594.0
3225,597.0
3226,605.0
3227,620.0
3228,549.0
3229,580.0
3230,616.0
3231,613.0
3232,639.0
3233,654.0
3234,573.0
3235,637.0
3236,730.0
3237,757.0
3238,551.0
3239,593.0
3240,662.0
3241,694.0
3242,713.0
3243,710.0
3244,607.0
3245,651.0
3246,714.0
3247,721.0
3248,720.0
3249,736.0
3250,592.0
3251,650.0
3252,721.0
3253,738.0
3254,741.0
3255,750.0
3256,550.0
3257,610.0
3258,660.0
3259,680.0
3260,705.0
3261,716.0
3262,588.0
3263,650.0
3264,717.0
3265,746.0
3266,625.0
3267,713.0
3268,806.0
3269,850.0
3270,568.0
3271,641.0
3272,734.0
3273,763.0
3274,796.0
3275,815.0
3276,624.0
3277,724.0
3278,815.0
3279,833.0
3280,496.0
3281,481.0
3282,468.0
3283,479.0
3284,455.0
3285,515.0
3286,566.0
3287,578.0
3288,594.0
3289,631.0
3290,475.0
3291,480.0
3292,520.0
3293,470.0
3294,500.0
3295,520.0
3296,456.0
3297,480.0
3298,500.0
3299,540.0
3300,565.0
3301,615.0
3302,540.0
3303,565.0
3304,635.0
3305,520.0
3306,560.0
3307,620.0
3308,488.0
3309,510.0
3310,507.5
3311,444.0
3312,444.0
3313,444.5
3314,444.5
3315,469.5
3316,469.5
3317,459.5
3318,459.5
3319,444.5
3320,444.5
3321,396.0
3322,396.0
3323,420.0
3324,428.0
3325,441.0
3326,438.0
3327,437.0
3328,399.0
3329,396.0
3330,390.0
3331,417.0
3332,548.0
3333,409.0
3334,409.0
3335,429.0
3336,458.0
3337,473.0
3338,429.0
3339,509.0
3340,465.0
3341,457.0
3342,458.0
3343,576.0
3344,602.0
3345,525.0
3346,451.0
3347,457.0
3348,490.0
3349,416.0
3350,426.0
3351,454.0
3352,479.0
3353,539.0
3354,542.0
3355,566.0
3356,605.0
3357,632.0
3358,463.0
3359,456.0
3360,444.0
3361,561.0
3362,562.0
3363,559.0
3364,564.0
3365,432.0
3366,554.0
3367,528.0
3368,420.0
3369,452.0
3370,432.0
3371,410.0
3372,430.0
3373,416.0
3374,416.0
3375,420.0
3376,481.0
3377,474.0
3378,560.0
3379,343.0
3380,476.0
3381,458.0
3382,428.0
3383,468.0
3384,432.0
3385,434.0
3386,438.0
3387,598.0
3388,542.0
3389,434.0
3390,472.0
3391,454.0
3392,432.0
3393,484.0
3394,430.0
3395,430.0
3396,436.0
3397,514.0
3398,495.0
3399,451.0
3400,513.0
3401,427.0
3402,622.0
3403,599.0
3404,449.0
3405,488.0
3406,460.0
3407,492.0
3408,528.0
3409,506.0
3410,390.0
3411,532.0
3412,549.0
3413,539.0
3414,559.0
3415,513.0
3416,477.0
3417,511.0
3418,468.0
3419,384.0
3420,390.0
3421,405.0
3422,412.0
3423,449.0
3424,439.0
3425,386.0
3426,436.0
3427,490.0
3428,473.0
3429,566.0
3430,548.0
3431,450.0
3432,388.0
3433,440.0
3434,447.0
3435,439.0
3436,442.0
3437,428.0
3438,429.0
3439,449.0
3440,634.0
3441,608.0
3442,597.0
3443,602.0
3444,595.0
3445,593.0
3446,617.0
3447,409.0
3448,522.0
3449,576.0
3450,662.0
3451,590.0
3452,604.0
3453,507.0
3454,516.0
3455,488.0
3456,456.0
3457,497.0
3458,615.0
3459,495.0
3460,506.0
3461,501.0
3462,539.0
3463,528.0
3464,557.0
3465,574.0
3466,546.0
3467,469.0
3468,532.0
3469,520.0
3470,418.0
3471,435.0
3472,443.0
3473,457.0
3474,439.0
3475,441.0
3476,431.0
3477,429.0
3478,509.0
3479,493.0
3480,515.0
3481,572.0
3482,632.0
3483,510.0
3484,562.0
3485,545.0
3486,501.0
3487,605.0
3488,684.0
3489,553.0
3490,647.0
3491,518.0
3492,474.0
3493,523.0
3494,512.0
3495,556.0
3496,477.0
3497,510.0
3498,509.0
3499,562.0
3500,513.0
3501,515.0
3502,508.0
3503,482.0
3504,493.0
3505,495.0
3506,540.0
3507,534.0
3508,488.0
3509,535.0
3510,537.0
3511,520.0
3512,471.0
3513,539.0
3514,562.0
3515,440.0
3516,445.0
3517,459.0
3518,525.0
3519,536.0
3520,514.0
3521,494.0
3522,419.0
3523,449.0
3524,488.0
3525,458.0
3526,476.0
3527,557.0
3528,582.0
3529,530.0
3530,631.0
3531,474.0
3532,495.0
3533,498.0
3534,521.0
3535,530.0
3536,444.0
3537,475.0
3538,475.0
3539,506.0
3540,534.0
3541,436.0
3542,443.0
3543,450.0
3544,460.0
3545,476.0
3546,481.0
3547,504.0
3548,489.0
3549,506.0
3550,525.0
3551,405.0
3552,418.0
3553,417.0
3554,421.0
3555,426.0
3556,446.0
3557,442.0
3558,467.0
3559,529.0
3560,551.0
3561,618.0
3562,613.0
3563,596.0
3564,548.0
3565,492.0
3566,522.0
3567,577.0
3568,418.0
3569,461.0
3570,448.0
3571,500.0
3572,424.0
3573,488.0
3574,434.0
3575,515.0
3576,472.0
3577,547.0
3578,454.0
3579,531.0
3580,372.0
3581,409.0
3582,427.0
3583,437.0
3584,459.0
3585,651.0
3586,647.0
3587,662.0
3588,622.0
3589,630.0
3590,629.0
3591,636.0
3592,578.0
3593,586.0
3594,578.0
3595,587.0
3596,582.0
3597,592.0
3598,584.0
3599,592.0
3600,550.0
3601,527.0
3602,547.0
3603,488.0
3604,494.0
3605,481.0
3606,517.0
3607,473.0
3608,491.0
3609,472.0
3610,518.0
3611,488.0
3612,536.0
3613,470.0
3614,481.0
3615,461.0
3616,542.0
3617,455.0
3618,494.0
3619,373.0
3620,395.0
3621,394.0
3622,384.0
3623,391.0
3624,392.0
3625,397.0
3626,393.0
3627,403.0
3628,404.0
3629,401.0
3630,353.0
3631,354.0
3632,371.0
3633,396.0
3634,398.0
3635,397.0
3636,383.0
3637,407.0
3638,419.0
3639,415.0
3640,410.0
3641,423.0
3642,424.0
3643,457.0
3644,366.0
3645,368.0
3646,388.0
3647,406.0
3648,400.0
3649,403.0
3650,395.0
3651,427.0
3652,422.0
3653,421.0
3654,421.0
3655,435.0
3656,436.0
3657,458.0
3658,357.0
3659,360.0
3660,387.0
3661,408.0
3662,405.0
3663,406.0
3664,397.0
3665,422.0
3666,430.0
3667,422.0
3668,429.0
3669,433.0
3670,447.0
3671,417.0
3672,414.0
3673,441.0
3674,472.0
3675,466.0
3676,472.0
3677,478.0
3678,512.0
3679,407.0
3680,433.0
3681,462.0
3682,458.0
3683,461.0
3684,467.0
3685,484.0
3686,380.0
3687,391.0
3688,399.0
3689,393.0
3690,392.0
3691,391.0
3692,394.0
3693,421.0
3694,458.0
3695,436.0
3696,476.0
3697,490.0
3698,479.0
3699,469.0
3700,519.0
3701,528.0
3702,544.0
3703,438.0
3704,491.0
3705,479.0
3706,528.0
3707,544.0
3708,624.0
3709,615.0
3710,682.0
3711,648.0
3712,620.0
3713,473.0
3714,562.0
3715,596.0
3716,622.0
3717,680.0
3718,539.0
3719,563.0
3720,428.0
3721,521.0
3722,620.0
3723,578.0
3724,679.0
3725,498.0
3726,523.0
3727,432.0
3728,534.0
3729,628.0
3730,582.0
3731,710.0
3732,516.0
3733,521.0
3734,445.0
3735,492.0
3736,570.0
3737,532.0
3738,608.0
3739,672.0
3740,492.0
3741,411.0
3742,453.0
3743,509.0
3744,488.0
3745,583.0
3746,593.0
3747,456.0
3748,395.0
3749,630.0
3750,630.0
3751,622.0
3752,621.0
3753,555.0
3754,614.0
3755,606.0
3756,572.0
3757,565.0
3758,570.0
3759,572.0
3760,522.0
3761,566.0
3762,561.0
3763,528.0
3764,530.0
3765,532.0
3766,532.0
3767,483.0
3768,518.0
3769,518.0
3770,532.0
3771,540.0
3772,538.0
3773,538.0
3774,486.0
3775,530.0
3776,527.0
3777,500.0
3778,505.0
3779,501.0
3780,500.0
3781,460.0
3782,485.0
3783,484.0
3784,454.0
3785,456.0
3786,454.0
3787,462.0
3788,450.0
3789,450.0
3790,449.0
3791,556.0
3792,597.0
3793,610.0
3794,617.0
3795,622.0
3796,636.0
3797,659.0
3798,644.0
3799,635.0
3800,637.0
3801,653.0
3802,654.0
3803,532.0
3804,572.0
3805,582.0
3806,594.0
3807,614.0
3808,635.0
3809,620.0
3810,638.0
3811,643.0
3812,520.0
3813,554.0
3814,557.0
3815,562.0
3816,581.0
3817,601.0
3818,596.0
3819,635.0
3820,643.0
3821,557.0
3822,582.0
3823,585.0
3824,587.0
3825,598.0
3826,609.0
3827,602.0
3828,609.0
3829,613.0
3830,549.0
3831,573.0
3832,578.0
3833,576.0
3834,589.0
3835,613.0
3836,598.0
3837,617.0
3838,626.0
3839,532.0
3840,565.0
3841,572.0
3842,576.0
3843,593.0
3844,617.0
3845,602.0
3846,622.0
3847,633.0
3848,561.0
3849,593.0
3850,603.0
3851,609.0
3852,611.0
3853,620.0
3854,614.0
3855,608.0
3856,612.0
3857,408.0
3858,413.0
3859,423.0
3860,476.0
3861,506.0
3862,553.0
3863,482.0
3864,516.0
3865,560.0
3866,560.0
3867,637.0
3868,668.0
3869,571.0
3870,627.0
3871,656.0
3872,561.0
3873,602.0
3874,636.0
3875,483.0
3876,514.0
3877,528.0
3878,543.0
3879,512.0
3880,526.0
3881,525.0
3882,585.0
3883,595.0
3884,605.0
3885,594.0
3886,480.0
3887,522.0
3888,540.0
3889,562.0
3890,525.0
3891,585.0
3892,595.0
3893,615.0
3894,512.0
3895,568.0
3896,582.0
3897,597.0
3898,482.0
3899,514.0
3900,528.0
3901,553.0
3902,446.0
3903,469.0
3904,471.0
3905,474.0
3906,485.0
3907,480.0
3908,495.0
3909,500.0
3910,498.0
3911,500.0
3912,510.0
3913,528.0
3914,428.0
3915,446.0
3916,454.0
3917,455.0
3918,465.0
3919,471.0
3920,474.0
3921,482.0
3922,472.0
3923,485.0
3924,487.0
3925,516.0
3926,446.0
3927,473.0
3928,473.0
3929,480.0
3930,488.0
3931,490.0
3932,489.0
3933,501.0
3934,493.0
3935,500.0
3936,508.0
3937,529.0
3938,538.0
3939,455.0
3940,510.0
3941,522.0
3942,576.0
3943,577.0
3944,393.0
3945,435.0
3946,468.0
3947,518.0
3948,522.0
3949,578.0
3950,394.0
3951,442.0
3952,474.0
3953,529.0
3954,533.0
3955,600.0
3956,388.0
3957,439.0
3958,475.0
3959,540.0
3960,546.0
3961,454.0
3962,384.0
3963,452.0
3964,500.0
3965,588.0
3966,602.0
3967,437.0
3968,380.0
3969,439.0
3970,490.0
3971,577.0
3972,607.0
3973,454.0
3974,378.0
3975,452.0
3976,471.0
3977,499.0
3978,516.0
3979,534.0
3980,378.0
3981,467.0
3982,475.0
3983,512.0
3984,533.0
3985,545.0
3986,367.0
3987,444.0
3988,467.0
3989,484.0
3990,508.0
3991,524.0
3992,442.0
3993,451.0
3994,450.0
3995,451.0
3996,456.0
3997,459.0
3998,481.0
3999,490.0
4000,485.0
4001,486.0
4002,411.0
4003,441.0
4004,449.0
4005,495.0
4006,502.0
4007,517.0
4008,544.0
4009,555.0
4010,560.0
4011,556.0
4012,422.0
4013,442.0
4014,448.0
4015,498.0
4016,500.0
4017,500.0
4018,541.0
4019,523.0
4020,540.0
4021,525.0
4022,396.0
4023,410.0
4024,407.0
4025,422.0
4026,413.0
4027,418.0
4028,424.0
4029,448.0
4030,454.0
4031,476.0
4032,402.0
4033,418.0
4034,417.0
4035,438.0
4036,426.0
4037,434.0
4038,439.0
4039,464.0
4040,469.0
4041,488.0
4042,413.0
4043,426.0
4044,426.0
4045,446.0
4046,433.0
4047,443.0
4048,446.0
4049,472.0
4050,478.0
4051,501.0
4052,424.0
4053,436.0
4054,437.0
4055,460.0
4056,446.0
4057,457.0
4058,458.0
4059,484.0
4060,490.0
4061,516.0
4062,477.0
4063,477.0
4064,462.0
4065,468.0
4066,463.0
4067,476.0
4068,546.0
4069,645.0
4070,488.0
4071,521.0
4072,540.0
4073,562.0
4074,575.0
4075,576.0
4076,601.0
4077,614.0
4078,482.0
4079,510.0
4080,528.0
4081,545.0
4082,556.0
4083,556.0
4084,587.0
4085,601.0
4086,409.0
4087,433.0
4088,458.0
4089,465.0
4090,464.0
4091,461.0
4092,465.0
4093,479.0
4094,490.0
4095,491.0
4096,483.0
4097,497.0
4098,494.0
4099,494.0
4100,513.0
4101,534.0
4102,573.0
4103,591.0
4104,647.0
4105,536.0
4106,546.0
4107,533.0
4108,592.0
4109,635.0
4110,544.0
4111,578.0
4112,527.0
4113,514.0
4114,577.0
4115,593.0
4116,485.0
4117,498.0
4118,528.0
4119,549.0
4120,497.0
4121,543.0
4122,598.0
4123,635.0
4124,667.0
4125,528.0
4126,587.0
4127,667.0
4128,493.0
4129,538.0
4130,578.0
4131,619.0
4132,486.0
4133,556.0
4134,634.0
4135,609.0
4136,473.0
4137,462.0
4138,393.0
4139,398.0
4140,397.0
4141,397.0
4142,507.0
4143,529.0
4144,538.0
4145,536.0
4146,495.0
4147,511.0
4148,515.0
4149,525.0
4150,541.0
4151,545.0
4152,582.0
4153,466.0
4154,490.0
4155,495.0
4156,497.0
4157,516.0
4158,529.0
4159,536.0
4160,578.0
4161,445.0
4162,481.0
4163,495.0
4164,505.0
4165,511.0
4166,545.0
4167,558.0
4168,605.0
4169,480.0
4170,520.0
4171,534.0
4172,543.0
4173,562.0
4174,590.0
4175,598.0
4176,634.0
4177,393.0
4178,442.0
4179,457.0
4180,490.0
4181,503.0
4182,567.0
4183,559.0
4184,532.0
4185,388.0
4186,432.0
4187,451.0
4188,470.0
4189,488.0
4190,545.0
4191,530.0
4192,540.0
4193,412.0
4194,424.0
4195,427.0
4196,445.0
4197,438.0
4198,433.0
4199,446.0
4200,455.0
4201,455.0
4202,462.0
4203,462.0
4204,472.0
4205,475.0
4206,485.0
4207,494.0
4208,486.0
4209,492.0
4210,496.0
4211,501.0
4212,508.0
4213,520.0
4214,539.0
4215,443.0
4216,465.0
4217,464.0
4218,496.0
4219,485.0
4220,483.0
4221,500.0
4222,515.0
4223,519.0
4224,527.0
4225,526.0
4226,539.0
4227,545.0
4228,560.0
4229,572.0
4230,560.0
4231,566.0
4232,573.0
4233,579.0
4234,587.0
4235,597.0
4236,616.0
4237,433.0
4238,455.0
4239,452.0
4240,493.0
4241,480.0
4242,484.0
4243,500.0
4244,522.0
4245,532.0
4246,544.0
4247,540.0
4248,554.0
4249,574.0
4250,595.0
4251,608.0
4252,598.0
4253,594.0
4254,606.0
4255,612.0
4256,623.0
4257,632.0
4258,562.0
4259,401.0
4260,421.0
4261,406.0
4262,430.0
4263,452.0
4264,461.0
4265,462.0
4266,515.0
4267,510.0
4268,496.0
4269,505.0
4270,531.0
4271,425.0
4272,435.0
4273,457.0
4274,458.0
4275,501.0
4276,505.0
4277,518.0
4278,540.0
4279,440.0
4280,457.0
4281,483.0
4282,490.0
4283,516.0
4284,523.0
4285,534.0
4286,562.0
4287,592.0
4288,589.0
4289,589.0
4290,584.0
4291,549.0
4292,545.0
4293,532.0
4294,510.0
4295,498.0
4296,517.0
4297,509.0
4298,491.0
4299,483.0
4300,507.0
4301,533.0
4302,551.0
4303,557.0
4304,566.0
4305,537.0
4306,545.0
4307,546.0
4308,546.0
4309,554.0
4310,483.0
4311,507.0
4312,529.0
4313,557.0
4314,557.0
4315,569.0
4316,585.0
4317,601.0
4318,604.0
4319,598.0
4320,617.0
4321,434.0
4322,445.0
4323,462.0
4324,497.0
4325,512.0
4326,518.0
4327,554.0
4328,570.0
4329,425.0
4330,435.0
4331,449.0
4332,479.0
4333,490.0
4334,498.0
4335,536.0
4336,555.0
4337,398.4
4338,399.2
4339,397.6
4340,399.2
4341,401.6
4342,403.2
4343,401.6
4344,404.0
4345,400.4
4346,403.2
4347,400.8
4348,401.6
4349,401.0
4350,401.4
4351,401.6
4352,402.8
4353,403.0
4354,403.0
4355,399.8
4356,400.4
4357,400.8
4358,399.6
4359,400.2
4360,400.8
4361,400.8
4362,401.0
4363,400.2
4364,400.0
4365,399.8
4366,399.4
4367,398.4
4368,393.6
4369,464.0
4370,540.0
4371,545.0
4372,436.0
4373,530.0
4374,547.0
